" File: Documents and Settings\ramantut\Desktop\
" SCOPE->  Wave:540.55nm  Pix:840  Val:398.889  Time:60000ms  Avg:3  Sm:1  Sg:0  Tc:off  Xt:3  Ch:1 
 499.00  1.1109E+002
 499.25  1.0762E+002
 499.50  1.3361E+002
 499.75  1.0862E+002
 500.00  1.3502E+002
 500.25  1.0190E+002
 500.50  1.3257E+002
 500.75  1.1728E+002
 501.00  1.3443E+002
 501.25  1.5003E+002
 501.50  1.3945E+002
 501.75  1.4811E+002
 502.00  1.0808E+002
 502.25  1.2526E+002
 502.50  1.3714E+002
 502.75  1.5181E+002
 503.00  1.3754E+002
 503.25  1.3440E+002
 503.50  1.3371E+002
 503.75  1.2521E+002
 504.00  1.2334E+002
 504.25  1.2732E+002
 504.50  1.3398E+002
 504.75  1.2941E+002
 505.00  1.2120E+002
 505.25  1.1246E+002
 505.50  1.0181E+002
 505.75  1.1964E+002
 506.00  1.3506E+002
 506.25  1.4650E+002
 506.50  1.2882E+002
 506.75  1.3323E+002
 507.00  1.3287E+002
 507.25  1.4722E+002
 507.50  1.3745E+002
 507.75  1.1096E+002
 508.00  1.2875E+002
 508.25  1.2358E+002
 508.50  1.5436E+002
 508.75  1.3816E+002
 509.00  1.1023E+002
 509.25  1.2279E+002
 509.50  1.3405E+002
 509.75  1.2102E+002
 510.00  1.2088E+002
 510.25  1.2396E+002
 510.50  1.3412E+002
 510.75  1.7076E+002
 511.00  1.3525E+002
 511.25  1.4848E+002
 511.50  1.4421E+002
 511.75  1.3197E+002
 512.00  1.4927E+002
 512.25  1.1819E+002
 512.50  1.3132E+002
 512.75  7.8354E+001
 513.00  1.5524E+002
 513.25  1.4969E+002
 513.50  1.4058E+002
 513.75  1.3867E+002
 514.00  1.4078E+002
 514.25  1.5353E+002
 514.50  1.5158E+002
 514.75  1.6292E+002
 515.00  1.4607E+002
 515.25  1.6700E+002
 515.50  1.4199E+002
 515.75  1.5568E+002
 516.00  1.4814E+002
 516.25  1.5667E+002
 516.50  1.6575E+002
 516.75  1.7637E+002
 517.00  2.0737E+002
 517.25  1.9252E+002
 517.50  4.4549E+002
 517.75  6.8383E+002
 518.00  2.5873E+002
 518.25  1.9023E+002
 518.50  1.9182E+002
 518.75  1.8537E+002
 519.00  2.0669E+002
 519.25  2.0842E+002
 519.50  1.9437E+002
 519.75  2.0326E+002
 520.00  2.1207E+002
 520.25  1.8643E+002
 520.50  2.2488E+002
 520.75  2.3625E+002
 521.00  2.3049E+002
 521.25  2.0270E+002
 521.50  2.2824E+002
 521.75  2.2593E+002
 522.00  2.4103E+002
 522.25  2.5536E+002
 522.50  2.5543E+002
 522.75  2.6627E+002
 523.00  2.7834E+002
 523.25  2.9656E+002
 523.50  3.1365E+002
 523.75  3.0187E+002
 524.00  3.0282E+002
 524.25  3.1895E+002
 524.50  3.1617E+002
 524.75  3.0552E+002
 525.00  3.3193E+002
 525.25  3.3969E+002
 525.50  3.6481E+002
 525.75  3.6870E+002
 526.00  3.6159E+002
 526.25  3.7001E+002
 526.50  3.6849E+002
 526.75  4.3742E+002
 527.00  5.8363E+002
 527.25  5.2405E+002
 527.50  5.0688E+002
 527.75  5.8979E+002
 528.00  6.9537E+002
 528.25  8.4523E+002
 528.50  9.0388E+002
 528.75  9.2756E+002
 529.00  1.0576E+003
 529.25  1.2975E+003
 529.50  1.5351E+003
 529.75  1.9410E+003
 530.00  2.7294E+003
 530.25  3.7310E+003
 530.50  4.3882E+003
 530.75  7.1798E+003
 531.00  8.7217E+003
 531.25  1.3313E+004
 531.50  1.4918E+004
 531.75  1.5628E+004
 532.00  1.4621E+004
 532.25  1.5829E+004
 532.50  1.5852E+004
 532.75  1.3756E+004
 533.00  9.7860E+003
 533.25  6.2479E+003
 533.50  4.2769E+003
 533.75  2.9449E+003
 534.00  2.3321E+003
 534.25  1.8791E+003
 534.50  1.5140E+003
 534.75  1.2295E+003
 535.00  1.0595E+003
 535.25  9.1991E+002
 535.50  8.9974E+002
 535.75  7.6706E+002
 536.00  7.3749E+002
 536.25  5.8665E+002
 536.50  5.0218E+002
 536.75  4.7007E+002
 537.00  4.6368E+002
 537.25  4.6959E+002
 537.50  4.2651E+002
 537.75  4.0396E+002
 538.00  4.1842E+002
 538.25  4.4222E+002
 538.50  4.3622E+002
 538.75  3.9971E+002
 539.00  4.0539E+002
 539.25  4.1749E+002
 539.50  4.1094E+002
 539.75  4.0427E+002
 540.00  4.0584E+002
 540.25  3.9981E+002
 540.50  3.9109E+002
 540.75  4.1371E+002
 541.00  3.7206E+002
 541.25  3.6128E+002
 541.50  3.5967E+002
 541.75  3.4990E+002
 542.00  3.3764E+002
 542.25  3.4044E+002
 542.50  3.2761E+002
 542.75  3.8449E+002
 543.00  3.9253E+002
 543.25  3.0541E+002
 543.50  3.2386E+002
 543.75  3.1513E+002
 544.00  3.1366E+002
 544.25  2.9488E+002
 544.50  2.7778E+002
 544.75  2.7418E+002
 545.00  2.8957E+002
 545.25  2.5729E+002
 545.50  2.6135E+002
 545.75  2.3959E+002
 546.00  2.9127E+002
 546.25  2.8001E+002
 546.50  2.8721E+002
 546.75  4.1025E+002
 547.00  1.8325E+003
 547.25  3.6242E+003
 547.50  1.0059E+003
 547.75  3.9791E+002
 548.00  3.0169E+002
 548.25  2.3458E+002
 548.50  2.3426E+002
 548.75  2.1144E+002
 549.00  1.9224E+002
 549.25  1.9545E+002
 549.50  1.7916E+002
 549.75  2.1418E+002
 550.00  1.9158E+002
 550.25  1.8953E+002
 550.50  1.6575E+002
 550.75  1.5710E+002
 551.00  2.0622E+002
 551.25  2.0615E+002
 551.50  1.8735E+002
 551.75  1.6932E+002
 552.00  1.9389E+002
 552.25  1.7207E+002
 552.50  1.5606E+002
 552.75  1.4950E+002
 553.00  1.5330E+002
 553.25  1.5809E+002
 553.50  1.4863E+002
 553.75  1.6375E+002
 554.00  1.5876E+002
 554.25  1.4659E+002
 554.50  1.6919E+002
 554.75  1.4290E+002
 555.00  1.5959E+002
 555.25  1.6043E+002
 555.50  1.6094E+002
 555.75  1.6401E+002
 556.00  1.7252E+002
 556.25  1.9287E+002
 556.50  1.7464E+002
 556.75  1.9485E+002
 557.00  1.5540E+002
 557.25  1.7645E+002
 557.50  1.6270E+002
 557.75  1.6887E+002
 558.00  1.7027E+002
 558.25  1.5670E+002
 558.50  1.4348E+002
 558.75  1.5349E+002
 559.00  1.6378E+002
 559.25  1.6125E+002
 559.50  2.1287E+002
 559.75  2.0427E+002
 560.00  2.6570E+002
 560.25  2.9285E+002
 560.50  2.8833E+002
 560.75  2.9889E+002
 561.00  2.7091E+002
 561.25  2.7877E+002
 561.50  2.5918E+002
 561.75  2.2101E+002
 562.00  1.8303E+002
 562.25  1.7240E+002
 562.50  1.8739E+002
 562.75  1.7640E+002
 563.00  1.3571E+002
 563.25  1.4515E+002
 563.50  1.7732E+002
 563.75  1.2830E+002
 564.00  1.2546E+002
 564.25  1.4099E+002
 564.50  1.4900E+002
 564.75  1.5476E+002
 565.00  1.4033E+002
 565.25  1.6317E+002
 565.50  1.4954E+002
 565.75  1.4849E+002
 566.00  1.4316E+002
 566.25  1.3424E+002
 566.50  1.3475E+002
 566.75  1.2870E+002
 567.00  1.6108E+002
 567.25  1.3037E+002
 567.50  1.4976E+002
 567.75  1.2163E+002
 568.00  1.3711E+002
 568.25  1.3677E+002
 568.50  1.2951E+002
 568.75  1.3698E+002
 569.00  1.3372E+002
 569.25  1.4710E+002
 569.50  1.3931E+002
 569.75  1.4062E+002
 570.00  1.4190E+002
 570.25  1.4357E+002
 570.50  1.4111E+002
 570.75  1.4602E+002
 571.00  1.4208E+002
 571.25  1.4345E+002
 571.50  1.1730E+002
 571.75  1.3952E+002
 572.00  1.3787E+002
 572.25  1.2875E+002
 572.50  1.5650E+002
 572.75  1.6722E+002
 573.00  1.3438E+002
 573.25  1.2856E+002
 573.50  1.3475E+002
 573.75  1.4543E+002
 574.00  1.9862E+002
 574.25  1.4939E+002
 574.50  1.2928E+002
 574.75  1.3947E+002
 575.00  1.2063E+002
 575.25  1.5191E+002
 575.50  1.2668E+002
 575.75  1.1911E+002
 576.00  1.4530E+002
 576.25  1.5086E+002
 576.50  1.6482E+002
 576.75  1.4733E+002
 577.00  1.4136E+002
 577.25  1.4866E+002
 577.50  1.4260E+002
 577.75  1.2527E+002
 578.00  1.3576E+002
 578.25  1.4891E+002
 578.50  1.3103E+002
 578.75  1.5117E+002
 579.00  1.2333E+002
 579.25  1.2369E+002
 579.50  1.1192E+002
 579.75  1.2024E+002
 580.00  -4.1557E+003
 580.25  -1.4735E+001
 580.50  1.4686E+002
 580.75  1.3907E+002
 581.00  1.4878E+002
 581.25  1.4929E+002
 581.50  1.2951E+002
 581.75  1.3345E+002
 582.00  1.5299E+002
 582.25  1.6734E+002
 582.50  1.2530E+002
 582.75  1.1244E+002
 583.00  1.3558E+002
 583.25  1.2023E+002
 583.50  1.2124E+002
 583.75  1.1073E+002
 584.00  1.1546E+002
 584.25  1.0290E+002
 584.50  1.4775E+002
 584.75  1.4092E+002
 585.00  1.3863E+002
 585.25  9.8535E+001
 585.50  1.2677E+002
 585.75  1.2477E+002
 586.00  1.4217E+002
 586.25  1.3912E+002
 586.50  1.2094E+002
 586.75  1.3780E+002
 587.00  1.2946E+002
 587.25  1.3674E+002
 587.50  9.3704E+001
 587.75  1.3565E+002
 588.00  1.4057E+002
 588.25  1.2447E+002
 588.50  1.2415E+002
 588.75  1.2207E+002
 589.00  1.4077E+002
 589.25  1.1319E+002
 589.50  1.2957E+002
 589.75  1.1908E+002
 590.00  1.3378E+002
 590.25  1.4191E+002
 590.50  1.3537E+002
 590.75  1.5131E+002
 591.00  1.2293E+002
 591.25  1.1839E+002
 591.50  1.2136E+002
 591.75  1.4525E+002
 592.00  1.1799E+002
 592.25  1.3226E+002
 592.50  1.2359E+002
 592.75  1.3295E+002
 593.00  1.2580E+002
 593.25  1.2548E+002
 593.50  1.3758E+002
 593.75  1.2186E+002
 594.00  1.3136E+002
 594.25  1.4763E+002
 594.50  1.3629E+002
 594.75  1.2636E+002
 595.00  1.2345E+002
 595.25  1.3692E+002
 595.50  9.6611E+001
 595.75  1.2559E+002
 596.00  1.1855E+002
 596.25  1.3257E+002
 596.50  1.5140E+002
 596.75  1.4393E+002
 597.00  1.3553E+002
 597.25  1.3725E+002
 597.50  1.4005E+002
 597.75  1.6089E+002
 598.00  1.3707E+002
 598.25  1.4002E+002
 598.50  1.4690E+002
 598.75  1.0771E+002
 599.00  1.1978E+002
 599.25  1.3988E+002
 599.50  1.2951E+002
 599.75  1.2096E+002
 600.00  1.4657E+002
 600.25  1.3182E+002
 600.50  1.0422E+002
 600.75  1.2197E+002
